Wavelength nm.;Abs.;Abs.;Abs.
200.00; ; ; 
200.20; ; ; 
200.40; ; ; 
200.60; ; ; 
200.80; ; ; 
201.00; ; ; 
201.20; ; ; 
201.40; ; ; 
201.60; ; ; 
201.80; ; ; 
202.00; ; ; 
202.20; ; ; 
202.40; ; ; 
202.60; ; ; 
202.80; ; ; 
203.00; ; ; 
203.20; ; ; 
203.40; ; ; 
203.60; ; ; 
203.80; ; ; 
204.00; ; ; 
204.20; ; ; 
204.40; ; ; 
204.60; ; ; 
204.80; ; ; 
205.00; ; ; 
205.20; ; ; 
205.40; ; ; 
205.60; ; ; 
205.80; ; ; 
206.00; ; ; 
206.20; ; ; 
206.40; ; ; 
206.60; ; ; 
206.80; ; ; 
207.00; ; ; 
207.20; ; ; 
207.40; ; ; 
207.60; ; ; 
207.80; ; ; 
208.00; ; ; 
208.20; ; ; 
208.40; ; ; 
208.60; ; ; 
208.80; ; ; 
209.00; ; ; 
209.20; ; ; 
209.40; ; ; 
209.60; ; ; 
209.80; ; ; 
210.00; ; ; 
210.20; ; ; 
210.40; ; ; 
210.60; ; ; 
210.80; ; ; 
211.00; ; ; 
211.20; ; ; 
211.40; ; ; 
211.60; ; ; 
211.80; ; ; 
212.00; ; ; 
212.20; ; ; 
212.40; ; ; 
212.60; ; ; 
212.80; ; ; 
213.00; ; ; 
213.20; ; ; 
213.40; ; ; 
213.60; ; ; 
213.80; ; ; 
214.00; ; ; 
214.20; ; ; 
214.40; ; ; 
214.60; ; ; 
214.80; ; ; 
215.00; ; ; 
215.20; ; ; 
215.40; ; ; 
215.60; ; ; 
215.80; ; ; 
216.00; ; ; 
216.20; ; ; 
216.40; ; ; 
216.60; ; ; 
216.80; ; ; 
217.00; ; ; 
217.20; ; ; 
217.40; ; ; 
217.60; ; ; 
217.80; ; ; 
218.00; ; ; 
218.20; ; ; 
218.40; ; ; 
218.60; ; ; 
218.80; ; ; 
219.00; ; ; 
219.20; ; ; 
219.40; ; ; 
219.60; ; ; 
219.80; ; ; 
220.00; ; ; 
220.20; ; ; 
220.40; ; ; 
220.60; ; ; 
220.80; ; ; 
221.00; ; ; 
221.20; ; ; 
221.40; ; ; 
221.60; ; ; 
221.80; ; ; 
222.00; ; ; 
222.20; ; ; 
222.40; ; ; 
222.60; ; ; 
222.80; ; ; 
223.00; ; ; 
223.20; ; ; 
223.40; ; ; 
223.60; ; ; 
223.80; ; ; 
224.00; ; ; 
224.20; ; ; 
224.40; ; ; 
224.60; ; ; 
224.80; ; ; 
225.00; ; ; 
225.20; ; ; 
225.40; ; ; 
225.60; ; ; 
225.80; ; ; 
226.00; ; ; 
226.20; ; ; 
226.40; ; ; 
226.60; ; ; 
226.80; ; ; 
227.00; ; ; 
227.20; ; ; 
227.40; ; ; 
227.60; ; ; 
227.80; ; ; 
228.00; ; ; 
228.20; ; ; 
228.40; ; ; 
228.60; ; ; 
228.80; ; ; 
229.00; ; ; 
229.20; ; ; 
229.40; ; ; 
229.60; ; ; 
229.80; ; ; 
230.00; ; ; 
230.20; ; ; 
230.40; ; ; 
230.60; ; ; 
230.80; ; ; 
231.00; ; ; 
231.20; ; ; 
231.40; ; ; 
231.60; ; ; 
231.80; ; ; 
232.00; ; ; 
232.20; ; ; 
232.40; ; ; 
232.60; ; ; 
232.80; ; ; 
233.00; ; ; 
233.20; ; ; 
233.40; ; ; 
233.60; ; ; 
233.80; ; ; 
234.00; ; ; 
234.20; ; ; 
234.40; ; ; 
234.60; ; ; 
234.80; ; ; 
235.00; ; ; 
235.20; ; ; 
235.40; ; ; 
235.60; ; ; 
235.80; ; ; 
236.00; ; ; 
236.20; ; ; 
236.40; ; ; 
236.60; ; ; 
236.80; ; ; 
237.00; ; ; 
237.20; ; ; 
237.40; ; ; 
237.60; ; ; 
237.80; ; ; 
238.00; ; ; 
238.20; ; ; 
238.40; ; ; 
238.60; ; ; 
238.80; ; ; 
239.00; ; ; 
239.20; ; ; 
239.40; ; ; 
239.60; ; ; 
239.80; ; ; 
240.00; ; ; 
240.20; ; ; 
240.40; ; ; 
240.60; ; ; 
240.80; ; ; 
241.00; ; ; 
241.20; ; ; 
241.40; ; ; 
241.60; ; ; 
241.80; ; ; 
242.00; ; ; 
242.20; ; ; 
242.40; ; ; 
242.60; ; ; 
242.80; ; ; 
243.00; ; ; 
243.20; ; ; 
243.40; ; ; 
243.60; ; ; 
243.80; ; ; 
244.00; ; ; 
244.20; ; ; 
244.40; ; ; 
244.60; ; ; 
244.80; ; ; 
245.00; ; ; 
245.20; ; ; 
245.40; ; ; 
245.60; ; ; 
245.80; ; ; 
246.00; ; ; 
246.20; ; ; 
246.40; ; ; 
246.60; ; ; 
246.80; ; ; 
247.00; ; ; 
247.20; ; ; 
247.40; ; ; 
247.60; ; ; 
247.80; ; ; 
248.00; ; ; 
248.20; ; ; 
248.40; ; ; 
248.60; ; ; 
248.80; ; ; 
249.00; ; ; 
249.20; ; ; 
249.40; ; ; 
249.60; ; ; 
249.80; ; ; 
250.00;-0.215;-0.225;-0.225
250.20;-0.224;-0.215;-0.220
250.40;-0.220;-0.204;-0.214
250.60;-0.221;-0.205;-0.214
250.80;-0.208;-0.202;-0.216
251.00;-0.209;-0.206;-0.217
251.20;-0.210;-0.203;-0.213
251.40;-0.200;-0.206;-0.220
251.60;-0.195;-0.200;-0.216
251.80;-0.191;-0.205;-0.198
252.00;-0.197;-0.202;-0.196
252.20;-0.208;-0.207;-0.204
252.40;-0.220;-0.214;-0.215
252.60;-0.223;-0.219;-0.215
252.80;-0.219;-0.221;-0.215
253.00;-0.213;-0.211;-0.222
253.20;-0.214;-0.203;-0.224
253.40;-0.204;-0.203;-0.222
253.60;-0.207;-0.205;-0.215
253.80;-0.205;-0.204;-0.216
254.00;-0.216;-0.203;-0.216
254.20;-0.222;-0.209;-0.222
254.40;-0.222;-0.214;-0.223
254.60;-0.227;-0.221;-0.227
254.80;-0.223;-0.228;-0.225
255.00;-0.227;-0.224;-0.218
255.20;-0.226;-0.224;-0.208
255.40;-0.225;-0.219;-0.201
255.60;-0.219;-0.219;-0.194
255.80;-0.222;-0.215;-0.184
256.00;-0.211;-0.196;-0.191
256.20;-0.213;-0.189;-0.208
256.40;-0.222;-0.200;-0.221
256.60;-0.235;-0.212;-0.233
256.80;-0.241;-0.227;-0.238
257.00;-0.242;-0.234;-0.235
257.20;-0.236;-0.225;-0.236
257.40;-0.219;-0.222;-0.234
257.60;-0.209;-0.221;-0.230
257.80;-0.208;-0.210;-0.215
258.00;-0.206;-0.206;-0.201
258.20;-0.193;-0.204;-0.195
258.40;-0.186;-0.211;-0.196
258.60;-0.185;-0.208;-0.188
258.80;-0.194;-0.205;-0.186
259.00;-0.203;-0.190;-0.191
259.20;-0.203;-0.193;-0.199
259.40;-0.203;-0.193;-0.201
259.60;-0.207;-0.201;-0.210
259.80;-0.223;-0.194;-0.232
260.00;-0.211;-0.207;-0.233
260.20;-0.204;-0.221;-0.230
260.40;-0.202;-0.229;-0.217
260.60;-0.217;-0.218;-0.213
260.80;-0.219;-0.208;-0.208
261.00;-0.212;-0.193;-0.211
261.20;-0.201;-0.194;-0.212
261.40;-0.197;-0.194;-0.208
261.60;-0.203;-0.202;-0.198
261.80;-0.201;-0.184;-0.189
262.00;-0.209;-0.183;-0.191
262.20;-0.207;-0.191;-0.189
262.40;-0.195;-0.188;-0.185
262.60;-0.189;-0.186;-0.180
262.80;-0.190;-0.168;-0.186
263.00;-0.195;-0.177;-0.195
263.20;-0.194;-0.188;-0.201
263.40;-0.202;-0.187;-0.194
263.60;-0.206;-0.194;-0.195
263.80;-0.205;-0.204;-0.204
264.00;-0.216;-0.210;-0.213
264.20;-0.224;-0.217;-0.214
264.40;-0.236;-0.226;-0.225
264.60;-0.241;-0.233;-0.239
264.80;-0.239;-0.235;-0.243
265.00;-0.235;-0.240;-0.239
265.20;-0.234;-0.248;-0.234
265.40;-0.237;-0.243;-0.229
265.60;-0.233;-0.239;-0.228
265.80;-0.213;-0.225;-0.234
266.00;-0.208;-0.215;-0.225
266.20;-0.206;-0.210;-0.208
266.40;-0.207;-0.197;-0.198
266.60;-0.200;-0.192;-0.187
266.80;-0.207;-0.181;-0.185
267.00;-0.210;-0.185;-0.176
267.20;-0.211;-0.188;-0.167
267.40;-0.205;-0.196;-0.157
267.60;-0.184;-0.188;-0.156
267.80;-0.176;-0.181;-0.168
268.00;-0.164;-0.167;-0.172
268.20;-0.164;-0.169;-0.176
268.40;-0.160;-0.185;-0.195
268.60;-0.169;-0.205;-0.191
268.80;-0.173;-0.216;-0.187
269.00;-0.169;-0.211;-0.183
269.20;-0.167;-0.215;-0.173
269.40;-0.174;-0.204;-0.182
269.60;-0.186;-0.187;-0.177
269.80;-0.190;-0.170;-0.177
270.00;-0.188;-0.155;-0.177
270.20;-0.191;-0.173;-0.179
270.40;-0.196;-0.169;-0.179
270.60;-0.191;-0.176;-0.186
270.80;-0.185;-0.201;-0.193
271.00;-0.174;-0.196;-0.196
271.20;-0.177;-0.188;-0.179
271.40;-0.188;-0.176;-0.184
271.60;-0.177;-0.182;-0.192
271.80;-0.179;-0.196;-0.186
272.00;-0.174;-0.207;-0.179
272.20;-0.177;-0.201;-0.181
272.40;-0.190;-0.194;-0.181
272.60;-0.192;-0.176;-0.177
272.80;-0.195;-0.183;-0.174
273.00;-0.182;-0.170;-0.175
273.20;-0.158;-0.172;-0.181
273.40;-0.163;-0.173;-0.177
273.60;-0.178;-0.165;-0.174
273.80;-0.176;-0.160;-0.160
274.00;-0.151;-0.162;-0.161
274.20;-0.124;-0.169;-0.164
274.40;-0.121;-0.158;-0.161
274.60;-0.120;-0.160;-0.168
274.80;-0.130;-0.165;-0.166
275.00;-0.156;-0.151;-0.179
275.20;-0.161;-0.129;-0.160
275.40;-0.158;-0.116;-0.150
275.60;-0.144;-0.121;-0.141
275.80;-0.123;-0.134;-0.137
276.00;-0.100;-0.131;-0.136
276.20;-0.107;-0.127;-0.147
276.40;-0.137;-0.137;-0.159
276.60;-0.158;-0.141;-0.145
276.80;-0.168;-0.145;-0.143
277.00;-0.149;-0.148;-0.149
277.20;-0.148;-0.154;-0.160
277.40;-0.150;-0.159;-0.155
277.60;-0.164;-0.164;-0.151
277.80;-0.170;-0.168;-0.158
278.00;-0.193;-0.177;-0.162
278.20;-0.180;-0.157;-0.153
278.40;-0.149;-0.156;-0.154
278.60;-0.141;-0.157;-0.158
278.80;-0.149;-0.153;-0.162
279.00;-0.165;-0.145;-0.160
279.20;-0.161;-0.138;-0.167
279.40;-0.149;-0.134;-0.151
279.60;-0.147;-0.129;-0.133
279.80;-0.140;-0.131;-0.111
280.00;-0.145;-0.141;-0.118
280.20;-0.148;-0.136;-0.123
280.40;-0.143;-0.130;-0.138
280.60;-0.142;-0.128;-0.147
280.80;-0.132;-0.120;-0.149
281.00;-0.111;-0.106;-0.122
281.20;-0.051;-0.052;-0.055
281.40;0.006;0.007;0.012
281.60;0.050;0.064;0.067
281.80;0.080;0.074;0.074
282.00;0.158;0.141;0.157
282.20;0.269;0.247;0.258
282.40;0.359;0.353;0.359
282.60;0.372;0.375;0.372
282.80;0.349;0.361;0.346
283.00;0.353;0.359;0.348
283.20;0.380;0.382;0.373
283.40;0.410;0.411;0.401
283.60;0.411;0.410;0.402
283.80;0.392;0.391;0.382
284.00;0.384;0.383;0.374
284.20;0.391;0.389;0.379
284.40;0.402;0.399;0.391
284.60;0.404;0.399;0.391
284.80;0.399;0.392;0.385
285.00;0.396;0.389;0.382
285.20;0.397;0.390;0.384
285.40;0.401;0.393;0.388
285.60;0.403;0.395;0.389
285.80;0.403;0.395;0.390
286.00;0.403;0.395;0.390
286.20;0.403;0.395;0.391
286.40;0.404;0.396;0.391
286.60;0.405;0.396;0.392
286.80;0.407;0.398;0.393
287.00;0.408;0.399;0.394
287.20;0.409;0.399;0.395
287.40;0.409;0.399;0.395
287.60;0.410;0.400;0.395
287.80;0.411;0.400;0.396
288.00;0.411;0.401;0.397
288.20;0.412;0.401;0.397
288.40;0.412;0.401;0.397
288.60;0.412;0.402;0.397
288.80;0.413;0.402;0.397
289.00;0.413;0.403;0.398
289.20;0.413;0.402;0.397
289.40;0.413;0.402;0.397
289.60;0.413;0.402;0.397
289.80;0.413;0.402;0.397
290.00;0.413;0.402;0.396
290.20;0.412;0.402;0.396
290.40;0.412;0.402;0.396
290.60;0.412;0.401;0.396
290.80;0.412;0.401;0.396
291.00;0.413;0.401;0.396
291.20;0.412;0.401;0.396
291.40;0.412;0.401;0.396
291.60;0.412;0.401;0.396
291.80;0.412;0.401;0.396
292.00;0.412;0.401;0.396
292.20;0.411;0.401;0.395
292.40;0.411;0.400;0.395
292.60;0.411;0.400;0.395
292.80;0.411;0.400;0.395
293.00;0.410;0.400;0.395
293.20;0.410;0.400;0.395
293.40;0.410;0.400;0.395
293.60;0.410;0.400;0.395
293.80;0.410;0.400;0.395
294.00;0.410;0.400;0.395
294.20;0.410;0.399;0.395
294.40;0.410;0.399;0.395
294.60;0.410;0.399;0.394
294.80;0.410;0.399;0.394
295.00;0.410;0.399;0.394
295.20;0.409;0.399;0.394
295.40;0.409;0.398;0.394
295.60;0.409;0.398;0.394
295.80;0.409;0.398;0.393
296.00;0.409;0.398;0.393
296.20;0.408;0.398;0.393
296.40;0.408;0.398;0.393
296.60;0.408;0.397;0.393
296.80;0.408;0.397;0.392
297.00;0.408;0.397;0.392
297.20;0.407;0.397;0.392
297.40;0.407;0.397;0.392
297.60;0.407;0.396;0.391
297.80;0.406;0.396;0.391
298.00;0.406;0.396;0.391
298.20;0.406;0.395;0.391
298.40;0.406;0.395;0.391
298.60;0.406;0.395;0.390
298.80;0.405;0.395;0.390
299.00;0.405;0.394;0.390
299.20;0.405;0.394;0.389
299.40;0.404;0.394;0.389
299.60;0.404;0.394;0.389
299.80;0.404;0.393;0.389
300.00;0.404;0.393;0.388
300.20;0.403;0.393;0.388
300.40;0.403;0.393;0.388
300.60;0.403;0.392;0.388
300.80;0.403;0.392;0.387
301.00;0.403;0.392;0.387
301.20;0.402;0.391;0.387
301.40;0.402;0.391;0.387
301.60;0.402;0.391;0.387
301.80;0.402;0.391;0.386
302.00;0.401;0.390;0.386
302.20;0.401;0.390;0.386
302.40;0.401;0.390;0.385
302.60;0.401;0.390;0.385
302.80;0.400;0.389;0.385
303.00;0.400;0.389;0.385
303.20;0.400;0.389;0.384
303.40;0.400;0.389;0.384
303.60;0.399;0.388;0.384
303.80;0.399;0.388;0.384
304.00;0.399;0.388;0.384
304.20;0.399;0.388;0.384
304.40;0.399;0.387;0.383
304.60;0.398;0.387;0.383
304.80;0.398;0.387;0.383
305.00;0.398;0.387;0.383
305.20;0.398;0.387;0.383
305.40;0.398;0.386;0.382
305.60;0.397;0.385;0.382
305.80;0.397;0.384;0.381
306.00;0.396;0.384;0.380
306.20;0.396;0.384;0.380
306.40;0.396;0.384;0.380
306.60;0.396;0.383;0.380
306.80;0.395;0.383;0.380
307.00;0.395;0.383;0.380
307.20;0.395;0.382;0.379
307.40;0.395;0.382;0.379
307.60;0.395;0.382;0.379
307.80;0.395;0.382;0.379
308.00;0.395;0.382;0.379
308.20;0.394;0.382;0.378
308.40;0.394;0.381;0.378
308.60;0.394;0.381;0.378
308.80;0.394;0.381;0.378
309.00;0.394;0.381;0.378
309.20;0.393;0.380;0.378
309.40;0.393;0.380;0.378
309.60;0.393;0.380;0.377
309.80;0.393;0.380;0.377
310.00;0.393;0.379;0.377
310.20;0.393;0.379;0.377
310.40;0.393;0.379;0.377
310.60;0.392;0.379;0.377
310.80;0.392;0.379;0.376
311.00;0.392;0.379;0.376
311.20;0.392;0.378;0.376
311.40;0.392;0.378;0.376
311.60;0.392;0.378;0.376
311.80;0.392;0.378;0.376
312.00;0.392;0.378;0.376
312.20;0.391;0.378;0.376
312.40;0.391;0.378;0.376
312.60;0.391;0.377;0.375
312.80;0.391;0.377;0.375
313.00;0.391;0.377;0.375
313.20;0.391;0.377;0.375
313.40;0.390;0.377;0.375
313.60;0.390;0.376;0.375
313.80;0.390;0.376;0.374
314.00;0.390;0.376;0.374
314.20;0.390;0.376;0.374
314.40;0.390;0.376;0.374
314.60;0.390;0.375;0.374
314.80;0.390;0.375;0.374
315.00;0.389;0.375;0.374
315.20;0.389;0.375;0.374
315.40;0.389;0.374;0.374
315.60;0.389;0.374;0.373
315.80;0.389;0.374;0.373
316.00;0.388;0.374;0.373
316.20;0.388;0.374;0.373
316.40;0.388;0.374;0.372
316.60;0.388;0.373;0.372
316.80;0.388;0.373;0.372
317.00;0.388;0.373;0.372
317.20;0.388;0.373;0.372
317.40;0.387;0.372;0.372
317.60;0.387;0.372;0.371
317.80;0.387;0.372;0.371
318.00;0.386;0.372;0.371
318.20;0.386;0.372;0.371
318.40;0.386;0.371;0.371
318.60;0.386;0.371;0.370
318.80;0.385;0.371;0.370
319.00;0.385;0.371;0.370
319.20;0.385;0.370;0.369
319.40;0.385;0.370;0.369
319.60;0.384;0.370;0.369
319.80;0.384;0.370;0.369
320.00;0.384;0.369;0.368
320.20;0.383;0.369;0.368
320.40;0.383;0.369;0.368
320.60;0.383;0.369;0.367
320.80;0.382;0.368;0.367
321.00;0.382;0.368;0.367
321.20;0.382;0.367;0.366
321.40;0.381;0.367;0.366
321.60;0.381;0.367;0.365
321.80;0.381;0.366;0.365
322.00;0.380;0.366;0.365
322.20;0.380;0.366;0.364
322.40;0.379;0.365;0.364
322.60;0.379;0.365;0.363
322.80;0.379;0.364;0.363
323.00;0.378;0.364;0.363
323.20;0.378;0.363;0.362
323.40;0.377;0.363;0.362
323.60;0.377;0.363;0.361
323.80;0.376;0.362;0.361
324.00;0.375;0.362;0.360
324.20;0.375;0.361;0.360
324.40;0.374;0.361;0.359
324.60;0.374;0.360;0.358
324.80;0.373;0.360;0.358
325.00;0.372;0.359;0.357
325.20;0.372;0.358;0.357
325.40;0.371;0.358;0.356
325.60;0.371;0.357;0.355
325.80;0.370;0.357;0.355
326.00;0.369;0.356;0.354
326.20;0.369;0.355;0.353
326.40;0.368;0.355;0.353
326.60;0.368;0.354;0.352
326.80;0.367;0.353;0.351
327.00;0.366;0.353;0.351
327.20;0.365;0.352;0.350
327.40;0.365;0.351;0.349
327.60;0.364;0.351;0.349
327.80;0.363;0.350;0.348
328.00;0.362;0.349;0.347
328.20;0.361;0.348;0.346
328.40;0.361;0.348;0.345
328.60;0.360;0.347;0.345
328.80;0.359;0.346;0.344
329.00;0.358;0.345;0.343
329.20;0.357;0.344;0.342
329.40;0.357;0.344;0.341
329.60;0.356;0.343;0.341
329.80;0.355;0.342;0.340
330.00;0.355;0.342;0.339
330.20;0.354;0.341;0.339
330.40;0.353;0.340;0.338
330.60;0.352;0.339;0.337
330.80;0.351;0.338;0.336
331.00;0.350;0.338;0.335
331.20;0.350;0.337;0.335
331.40;0.349;0.336;0.334
331.60;0.348;0.335;0.333
331.80;0.347;0.334;0.332
332.00;0.346;0.334;0.331
332.20;0.346;0.333;0.330
332.40;0.345;0.332;0.330
332.60;0.344;0.332;0.329
332.80;0.343;0.331;0.328
333.00;0.343;0.330;0.327
333.20;0.342;0.329;0.327
333.40;0.341;0.329;0.326
333.60;0.340;0.328;0.325
333.80;0.339;0.327;0.324
334.00;0.338;0.326;0.323
334.20;0.338;0.325;0.322
334.40;0.337;0.325;0.321
334.60;0.335;0.324;0.320
334.80;0.335;0.323;0.319
335.00;0.334;0.322;0.318
335.20;0.333;0.321;0.317
335.40;0.332;0.320;0.316
335.60;0.331;0.319;0.316
335.80;0.330;0.319;0.315
336.00;0.330;0.318;0.314
336.20;0.329;0.317;0.313
336.40;0.328;0.316;0.312
336.60;0.327;0.315;0.311
336.80;0.326;0.315;0.310
337.00;0.325;0.314;0.310
337.20;0.324;0.313;0.309
337.40;0.324;0.313;0.308
337.60;0.323;0.312;0.307
337.80;0.322;0.311;0.307
338.00;0.321;0.311;0.306
338.20;0.320;0.310;0.305
338.40;0.320;0.309;0.304
338.60;0.319;0.308;0.303
338.80;0.318;0.307;0.302
339.00;0.317;0.307;0.302
339.20;0.317;0.306;0.301
339.40;0.316;0.305;0.300
339.60;0.315;0.304;0.299
339.80;0.314;0.304;0.298
340.00;0.314;0.303;0.297
340.20;0.313;0.303;0.297
340.40;0.313;0.302;0.296
340.60;0.312;0.301;0.295
340.80;0.311;0.301;0.294
341.00;0.310;0.300;0.294
341.20;0.310;0.299;0.293
341.40;0.309;0.299;0.292
341.60;0.308;0.298;0.291
341.80;0.308;0.297;0.290
342.00;0.307;0.296;0.290
342.20;0.306;0.296;0.289
342.40;0.306;0.295;0.288
342.60;0.305;0.294;0.287
342.80;0.304;0.294;0.287
343.00;0.304;0.293;0.286
343.20;0.303;0.293;0.286
343.40;0.302;0.292;0.285
343.60;0.302;0.291;0.284
343.80;0.301;0.290;0.284
344.00;0.301;0.290;0.283
344.20;0.300;0.289;0.282
344.40;0.299;0.288;0.282
344.60;0.298;0.287;0.281
344.80;0.298;0.287;0.280
345.00;0.297;0.286;0.280
345.20;0.296;0.285;0.279
345.40;0.296;0.285;0.278
345.60;0.295;0.284;0.277
345.80;0.294;0.283;0.277
346.00;0.294;0.282;0.276
346.20;0.293;0.282;0.276
346.40;0.293;0.281;0.275
346.60;0.292;0.280;0.274
346.80;0.292;0.280;0.274
347.00;0.291;0.279;0.273
347.20;0.290;0.278;0.272
347.40;0.290;0.278;0.272
347.60;0.289;0.277;0.271
347.80;0.288;0.276;0.271
348.00;0.288;0.276;0.270
348.20;0.287;0.275;0.269
348.40;0.287;0.274;0.269
348.60;0.286;0.274;0.268
348.80;0.286;0.273;0.268
349.00;0.285;0.272;0.267
349.20;0.284;0.272;0.266
349.40;0.284;0.271;0.266
349.60;0.283;0.270;0.265
349.80;0.283;0.270;0.264
350.00;0.282;0.269;0.264
350.20;0.282;0.268;0.263
350.40;0.281;0.268;0.263
350.60;0.281;0.267;0.262
350.80;0.280;0.266;0.262
351.00;0.280;0.266;0.261
351.20;0.279;0.265;0.261
351.40;0.278;0.264;0.260
351.60;0.278;0.264;0.259
351.80;0.277;0.263;0.259
352.00;0.276;0.262;0.258
352.20;0.276;0.262;0.257
352.40;0.275;0.261;0.257
352.60;0.275;0.260;0.256
352.80;0.274;0.260;0.256
353.00;0.273;0.259;0.255
353.20;0.273;0.259;0.255
353.40;0.272;0.258;0.254
353.60;0.272;0.257;0.253
353.80;0.271;0.257;0.253
354.00;0.271;0.256;0.252
354.20;0.270;0.255;0.252
354.40;0.269;0.255;0.251
354.60;0.269;0.254;0.251
354.80;0.269;0.253;0.250
355.00;0.268;0.253;0.250
355.20;0.267;0.252;0.249
355.40;0.267;0.252;0.249
355.60;0.266;0.251;0.248
355.80;0.266;0.251;0.248
356.00;0.265;0.250;0.247
356.20;0.264;0.250;0.247
356.40;0.264;0.249;0.246
356.60;0.263;0.248;0.245
356.80;0.263;0.248;0.245
357.00;0.262;0.247;0.244
357.20;0.262;0.247;0.244
357.40;0.261;0.246;0.243
357.60;0.261;0.246;0.243
357.80;0.260;0.245;0.242
358.00;0.260;0.244;0.241
358.20;0.259;0.244;0.241
358.40;0.259;0.243;0.241
358.60;0.258;0.243;0.240
358.80;0.258;0.243;0.240
359.00;0.257;0.242;0.239
359.20;0.257;0.241;0.239
359.40;0.256;0.241;0.238
359.60;0.256;0.240;0.238
359.80;0.255;0.240;0.237
360.00;0.255;0.239;0.237
360.20;0.254;0.239;0.236
360.40;0.254;0.238;0.236
360.60;0.253;0.238;0.235
360.80;0.252;0.237;0.235
361.00;0.252;0.237;0.234
361.20;0.252;0.236;0.234
361.40;0.251;0.236;0.233
361.60;0.250;0.235;0.232
361.80;0.250;0.234;0.232
362.00;0.249;0.234;0.231
362.20;0.249;0.233;0.231
362.40;0.248;0.233;0.231
362.60;0.248;0.232;0.230
362.80;0.247;0.232;0.230
363.00;0.247;0.231;0.229
363.20;0.247;0.231;0.229
363.40;0.246;0.230;0.228
363.60;0.245;0.230;0.228
363.80;0.245;0.229;0.227
364.00;0.244;0.229;0.227
364.20;0.244;0.228;0.226
364.40;0.244;0.228;0.226
364.60;0.243;0.227;0.226
364.80;0.243;0.227;0.225
365.00;0.242;0.226;0.224
365.20;0.242;0.225;0.224
365.40;0.241;0.225;0.223
365.60;0.241;0.225;0.223
365.80;0.240;0.224;0.223
366.00;0.240;0.224;0.222
366.20;0.240;0.223;0.222
366.40;0.239;0.223;0.222
366.60;0.239;0.222;0.221
366.80;0.238;0.222;0.221
367.00;0.238;0.222;0.221
367.20;0.237;0.221;0.220
367.40;0.237;0.221;0.219
367.60;0.236;0.220;0.219
367.80;0.236;0.220;0.219
368.00;0.236;0.219;0.219
368.20;0.235;0.219;0.218
368.40;0.235;0.218;0.218
368.60;0.234;0.218;0.217
368.80;0.234;0.218;0.217
369.00;0.233;0.217;0.216
369.20;0.233;0.217;0.216
369.40;0.233;0.216;0.215
369.60;0.232;0.216;0.215
369.80;0.232;0.215;0.215
370.00;0.231;0.215;0.214
370.20;0.231;0.215;0.214
370.40;0.230;0.214;0.214
370.60;0.230;0.214;0.213
370.80;0.230;0.214;0.213
371.00;0.229;0.213;0.212
371.20;0.229;0.213;0.212
371.40;0.228;0.213;0.212
371.60;0.228;0.212;0.211
371.80;0.228;0.212;0.211
372.00;0.227;0.212;0.210
372.20;0.227;0.211;0.210
372.40;0.227;0.211;0.210
372.60;0.226;0.211;0.209
372.80;0.226;0.210;0.209
373.00;0.225;0.210;0.209
373.20;0.225;0.210;0.208
373.40;0.225;0.209;0.208
373.60;0.224;0.209;0.208
373.80;0.224;0.209;0.208
374.00;0.224;0.208;0.207
374.20;0.223;0.208;0.207
374.40;0.223;0.208;0.206
374.60;0.223;0.207;0.206
374.80;0.222;0.207;0.206
375.00;0.222;0.207;0.205
375.20;0.221;0.206;0.205
375.40;0.221;0.206;0.205
375.60;0.221;0.206;0.204
375.80;0.220;0.205;0.204
376.00;0.220;0.205;0.203
376.20;0.220;0.205;0.203
376.40;0.219;0.205;0.203
376.60;0.219;0.204;0.202
376.80;0.219;0.204;0.202
377.00;0.218;0.204;0.202
377.20;0.218;0.203;0.202
377.40;0.218;0.203;0.201
377.60;0.217;0.203;0.201
377.80;0.217;0.203;0.201
378.00;0.217;0.202;0.200
378.20;0.216;0.202;0.200
378.40;0.216;0.202;0.199
378.60;0.215;0.201;0.199
378.80;0.215;0.201;0.199
379.00;0.215;0.201;0.198
379.20;0.214;0.200;0.198
379.40;0.214;0.200;0.198
379.60;0.214;0.200;0.197
379.80;0.213;0.200;0.197
380.00;0.213;0.199;0.197
380.20;0.213;0.199;0.196
380.40;0.212;0.199;0.196
380.60;0.212;0.199;0.196
380.80;0.212;0.198;0.195
381.00;0.211;0.198;0.195
381.20;0.211;0.198;0.195
381.40;0.211;0.198;0.195
381.60;0.210;0.197;0.194
381.80;0.210;0.197;0.194
382.00;0.210;0.197;0.194
382.20;0.209;0.196;0.193
382.40;0.209;0.196;0.193
382.60;0.209;0.196;0.193
382.80;0.208;0.196;0.193
383.00;0.208;0.196;0.192
383.20;0.208;0.195;0.192
383.40;0.207;0.195;0.192
383.60;0.207;0.195;0.192
383.80;0.207;0.195;0.191
384.00;0.206;0.194;0.191
384.20;0.206;0.194;0.191
384.40;0.206;0.194;0.190
384.60;0.206;0.194;0.190
384.80;0.205;0.193;0.190
385.00;0.205;0.193;0.190
385.20;0.205;0.193;0.189
385.40;0.204;0.193;0.189
385.60;0.204;0.192;0.189
385.80;0.204;0.192;0.188
386.00;0.203;0.192;0.188
386.20;0.203;0.192;0.188
386.40;0.203;0.191;0.188
386.60;0.203;0.191;0.187
386.80;0.202;0.191;0.187
387.00;0.202;0.191;0.187
387.20;0.202;0.190;0.186
387.40;0.201;0.190;0.186
387.60;0.201;0.190;0.186
387.80;0.201;0.190;0.186
388.00;0.200;0.189;0.185
388.20;0.200;0.189;0.185
388.40;0.200;0.189;0.185
388.60;0.200;0.189;0.185
388.80;0.199;0.188;0.184
389.00;0.199;0.188;0.184
389.20;0.199;0.188;0.184
389.40;0.199;0.188;0.184
389.60;0.198;0.187;0.183
389.80;0.198;0.187;0.183
390.00;0.198;0.187;0.183
390.20;0.197;0.187;0.183
390.40;0.197;0.186;0.182
390.60;0.197;0.186;0.182
390.80;0.197;0.186;0.182
391.00;0.196;0.186;0.181
391.20;0.196;0.185;0.181
391.40;0.196;0.185;0.181
391.60;0.195;0.185;0.181
391.80;0.195;0.185;0.180
392.00;0.195;0.184;0.180
392.20;0.195;0.184;0.180
392.40;0.194;0.184;0.180
392.60;0.194;0.184;0.179
392.80;0.194;0.183;0.179
393.00;0.194;0.183;0.179
393.20;0.193;0.183;0.179
393.40;0.193;0.183;0.179
393.60;0.193;0.183;0.178
393.80;0.193;0.182;0.178
394.00;0.192;0.182;0.178
394.20;0.192;0.182;0.178
394.40;0.192;0.182;0.177
394.60;0.192;0.181;0.177
394.80;0.191;0.181;0.177
395.00;0.191;0.181;0.177
395.20;0.191;0.181;0.176
395.40;0.191;0.180;0.176
395.60;0.190;0.180;0.176
395.80;0.190;0.180;0.176
396.00;0.190;0.180;0.175
396.20;0.189;0.179;0.175
396.40;0.189;0.179;0.175
396.60;0.189;0.179;0.175
396.80;0.189;0.179;0.175
397.00;0.189;0.178;0.174
397.20;0.188;0.178;0.174
397.40;0.188;0.178;0.174
397.60;0.188;0.178;0.174
397.80;0.188;0.178;0.173
398.00;0.187;0.177;0.173
398.20;0.187;0.177;0.173
398.40;0.187;0.177;0.173
398.60;0.187;0.177;0.173
398.80;0.186;0.177;0.172
399.00;0.186;0.176;0.172
399.20;0.186;0.176;0.172
399.40;0.186;0.176;0.172
399.60;0.185;0.176;0.171
399.80;0.185;0.175;0.171
400.00;0.185;0.175;0.171
400.20;0.185;0.175;0.171
400.40;0.184;0.175;0.171
400.60;0.184;0.175;0.170
400.80;0.184;0.174;0.170
401.00;0.184;0.174;0.170
401.20;0.183;0.174;0.170
401.40;0.183;0.173;0.169
401.60;0.183;0.173;0.169
401.80;0.183;0.173;0.169
402.00;0.182;0.173;0.169
402.20;0.182;0.173;0.169
402.40;0.182;0.172;0.168
402.60;0.182;0.172;0.168
402.80;0.182;0.172;0.168
403.00;0.181;0.172;0.168
403.20;0.181;0.172;0.168
403.40;0.181;0.171;0.167
403.60;0.181;0.171;0.167
403.80;0.180;0.171;0.167
404.00;0.180;0.171;0.167
404.20;0.180;0.171;0.167
404.40;0.180;0.170;0.166
404.60;0.179;0.170;0.166
404.80;0.179;0.170;0.166
405.00;0.179;0.170;0.166
405.20;0.179;0.170;0.166
405.40;0.179;0.169;0.165
405.60;0.178;0.169;0.165
405.80;0.178;0.169;0.165
406.00;0.178;0.169;0.165
406.20;0.178;0.169;0.165
406.40;0.177;0.168;0.164
406.60;0.177;0.168;0.164
406.80;0.177;0.168;0.164
407.00;0.177;0.168;0.164
407.20;0.177;0.168;0.164
407.40;0.176;0.167;0.163
407.60;0.176;0.167;0.163
407.80;0.176;0.167;0.163
408.00;0.176;0.167;0.163
408.20;0.175;0.167;0.163
408.40;0.175;0.167;0.162
408.60;0.175;0.166;0.162
408.80;0.175;0.166;0.162
409.00;0.175;0.166;0.162
409.20;0.174;0.166;0.162
409.40;0.174;0.166;0.161
409.60;0.174;0.166;0.161
409.80;0.174;0.165;0.161
410.00;0.174;0.165;0.161
410.20;0.173;0.165;0.161
410.40;0.173;0.165;0.160
410.60;0.173;0.165;0.160
410.80;0.173;0.164;0.160
411.00;0.173;0.164;0.160
411.20;0.172;0.164;0.160
411.40;0.172;0.164;0.159
411.60;0.172;0.164;0.159
411.80;0.172;0.163;0.159
412.00;0.172;0.163;0.159
412.20;0.171;0.163;0.159
412.40;0.171;0.163;0.159
412.60;0.171;0.163;0.158
412.80;0.171;0.163;0.158
413.00;0.171;0.162;0.158
413.20;0.170;0.162;0.158
413.40;0.170;0.162;0.157
413.60;0.170;0.162;0.157
413.80;0.170;0.162;0.157
414.00;0.170;0.162;0.157
414.20;0.169;0.161;0.157
414.40;0.169;0.161;0.157
414.60;0.169;0.161;0.156
414.80;0.169;0.161;0.156
415.00;0.169;0.161;0.156
415.20;0.168;0.161;0.156
415.40;0.168;0.160;0.156
415.60;0.168;0.160;0.155
415.80;0.168;0.160;0.155
416.00;0.167;0.160;0.155
416.20;0.167;0.160;0.155
416.40;0.167;0.160;0.155
416.60;0.167;0.160;0.155
416.80;0.166;0.160;0.154
417.00;0.166;0.159;0.154
417.20;0.166;0.159;0.154
417.40;0.166;0.159;0.154
417.60;0.166;0.159;0.154
417.80;0.165;0.159;0.153
418.00;0.165;0.159;0.153
418.20;0.165;0.159;0.153
418.40;0.165;0.158;0.153
418.60;0.165;0.158;0.153
418.80;0.165;0.158;0.153
419.00;0.164;0.158;0.152
419.20;0.164;0.158;0.152
419.40;0.164;0.158;0.152
419.60;0.164;0.157;0.152
419.80;0.164;0.157;0.152
420.00;0.164;0.157;0.152
420.20;0.163;0.157;0.151
420.40;0.163;0.157;0.151
420.60;0.163;0.157;0.151
420.80;0.163;0.157;0.151
421.00;0.162;0.156;0.151
421.20;0.162;0.156;0.151
421.40;0.162;0.156;0.150
421.60;0.162;0.156;0.150
421.80;0.162;0.156;0.150
422.00;0.162;0.156;0.150
422.20;0.161;0.156;0.150
422.40;0.161;0.156;0.150
422.60;0.161;0.155;0.150
422.80;0.161;0.155;0.149
423.00;0.161;0.155;0.149
423.20;0.160;0.155;0.149
423.40;0.160;0.155;0.149
423.60;0.160;0.155;0.149
423.80;0.160;0.154;0.148
424.00;0.160;0.154;0.148
424.20;0.159;0.154;0.148
424.40;0.159;0.154;0.148
424.60;0.159;0.154;0.148
424.80;0.159;0.154;0.148
425.00;0.159;0.153;0.147
425.20;0.159;0.153;0.147
425.40;0.158;0.153;0.147
425.60;0.158;0.153;0.147
425.80;0.158;0.153;0.147
426.00;0.158;0.153;0.147
426.20;0.158;0.153;0.147
426.40;0.158;0.153;0.146
426.60;0.157;0.152;0.146
426.80;0.157;0.152;0.146
427.00;0.157;0.152;0.146
427.20;0.157;0.152;0.146
427.40;0.157;0.152;0.145
427.60;0.156;0.152;0.145
427.80;0.156;0.152;0.145
428.00;0.156;0.151;0.145
428.20;0.156;0.151;0.145
428.40;0.156;0.151;0.145
428.60;0.156;0.151;0.145
428.80;0.155;0.151;0.145
429.00;0.155;0.151;0.144
429.20;0.155;0.151;0.144
429.40;0.155;0.151;0.144
429.60;0.155;0.150;0.144
429.80;0.155;0.150;0.144
430.00;0.154;0.150;0.144
430.20;0.154;0.150;0.143
430.40;0.154;0.150;0.143
430.60;0.154;0.150;0.143
430.80;0.154;0.150;0.143
431.00;0.153;0.149;0.143
431.20;0.153;0.149;0.143
431.40;0.153;0.149;0.142
431.60;0.153;0.149;0.142
431.80;0.153;0.149;0.142
432.00;0.153;0.149;0.142
432.20;0.152;0.149;0.142
432.40;0.152;0.149;0.142
432.60;0.152;0.148;0.141
432.80;0.152;0.148;0.141
433.00;0.152;0.148;0.141
433.20;0.152;0.148;0.141
433.40;0.151;0.148;0.141
433.60;0.151;0.148;0.141
433.80;0.151;0.148;0.141
434.00;0.151;0.148;0.140
434.20;0.151;0.147;0.140
434.40;0.151;0.147;0.140
434.60;0.150;0.147;0.140
434.80;0.150;0.147;0.140
435.00;0.150;0.147;0.140
435.20;0.150;0.147;0.139
435.40;0.150;0.147;0.139
435.60;0.150;0.146;0.139
435.80;0.149;0.146;0.139
436.00;0.149;0.146;0.139
436.20;0.149;0.146;0.139
436.40;0.149;0.146;0.138
436.60;0.149;0.146;0.138
436.80;0.149;0.146;0.138
437.00;0.148;0.146;0.138
437.20;0.148;0.146;0.138
437.40;0.148;0.145;0.138
437.60;0.148;0.145;0.138
437.80;0.148;0.145;0.137
438.00;0.148;0.145;0.137
438.20;0.148;0.145;0.137
438.40;0.147;0.145;0.137
438.60;0.147;0.145;0.137
438.80;0.147;0.145;0.137
439.00;0.147;0.145;0.137
439.20;0.147;0.144;0.137
439.40;0.147;0.144;0.136
439.60;0.147;0.144;0.136
439.80;0.146;0.144;0.136
440.00;0.146;0.144;0.136
440.20;0.146;0.144;0.136
440.40;0.146;0.144;0.136
440.60;0.146;0.144;0.135
440.80;0.146;0.143;0.135
441.00;0.145;0.143;0.135
441.20;0.145;0.143;0.135
441.40;0.145;0.143;0.135
441.60;0.145;0.143;0.135
441.80;0.145;0.143;0.135
442.00;0.145;0.143;0.134
442.20;0.145;0.143;0.134
442.40;0.145;0.143;0.134
442.60;0.144;0.142;0.134
442.80;0.144;0.142;0.134
443.00;0.144;0.142;0.134
443.20;0.144;0.142;0.134
443.40;0.144;0.142;0.134
443.60;0.144;0.142;0.133
443.80;0.144;0.142;0.133
444.00;0.143;0.142;0.133
444.20;0.143;0.141;0.133
444.40;0.143;0.141;0.133
444.60;0.143;0.141;0.133
444.80;0.143;0.141;0.133
445.00;0.143;0.141;0.132
445.20;0.143;0.141;0.132
445.40;0.143;0.141;0.132
445.60;0.142;0.141;0.132
445.80;0.142;0.141;0.132
446.00;0.142;0.141;0.132
446.20;0.142;0.141;0.132
446.40;0.142;0.140;0.131
446.60;0.142;0.140;0.131
446.80;0.141;0.140;0.131
447.00;0.141;0.140;0.131
447.20;0.141;0.140;0.131
447.40;0.141;0.140;0.131
447.60;0.141;0.140;0.131
447.80;0.141;0.140;0.131
448.00;0.141;0.140;0.131
448.20;0.141;0.140;0.130
448.40;0.141;0.139;0.130
448.60;0.140;0.139;0.130
448.80;0.140;0.139;0.130
449.00;0.140;0.139;0.130
449.20;0.140;0.139;0.130
449.40;0.140;0.139;0.129
449.60;0.140;0.139;0.129
449.80;0.140;0.139;0.129
450.00;0.139;0.138;0.129
450.20;0.139;0.138;0.129
450.40;0.139;0.138;0.129
450.60;0.139;0.138;0.129
450.80;0.139;0.138;0.128
451.00;0.139;0.138;0.128
451.20;0.139;0.138;0.128
451.40;0.138;0.138;0.128
451.60;0.138;0.137;0.128
451.80;0.138;0.137;0.128
452.00;0.138;0.137;0.128
452.20;0.138;0.137;0.128
452.40;0.138;0.137;0.127
452.60;0.138;0.137;0.127
452.80;0.138;0.137;0.127
453.00;0.137;0.137;0.127
453.20;0.137;0.137;0.127
453.40;0.137;0.137;0.127
453.60;0.137;0.136;0.127
453.80;0.137;0.136;0.127
454.00;0.137;0.136;0.126
454.20;0.137;0.136;0.126
454.40;0.137;0.136;0.126
454.60;0.137;0.136;0.126
454.80;0.136;0.136;0.126
455.00;0.136;0.136;0.126
455.20;0.136;0.135;0.126
455.40;0.136;0.135;0.126
455.60;0.136;0.135;0.126
455.80;0.136;0.135;0.125
456.00;0.136;0.135;0.125
456.20;0.135;0.135;0.125
456.40;0.135;0.135;0.125
456.60;0.135;0.135;0.125
456.80;0.135;0.135;0.125
457.00;0.135;0.134;0.125
457.20;0.135;0.134;0.125
457.40;0.135;0.134;0.124
457.60;0.134;0.134;0.124
457.80;0.134;0.134;0.124
458.00;0.134;0.134;0.124
458.20;0.134;0.133;0.124
458.40;0.134;0.133;0.124
458.60;0.134;0.133;0.124
458.80;0.134;0.133;0.124
459.00;0.134;0.133;0.123
459.20;0.133;0.133;0.123
459.40;0.133;0.133;0.123
459.60;0.133;0.133;0.123
459.80;0.133;0.133;0.123
460.00;0.133;0.133;0.123
460.20;0.133;0.132;0.123
460.40;0.133;0.132;0.123
460.60;0.133;0.132;0.123
460.80;0.132;0.132;0.122
461.00;0.132;0.132;0.122
461.20;0.132;0.132;0.122
461.40;0.132;0.132;0.122
461.60;0.132;0.131;0.122
461.80;0.132;0.131;0.122
462.00;0.132;0.131;0.122
462.20;0.132;0.131;0.122
462.40;0.131;0.131;0.121
462.60;0.131;0.131;0.121
462.80;0.131;0.131;0.121
463.00;0.131;0.131;0.121
463.20;0.131;0.130;0.121
463.40;0.131;0.130;0.121
463.60;0.131;0.130;0.121
463.80;0.131;0.130;0.121
464.00;0.131;0.130;0.121
464.20;0.130;0.130;0.120
464.40;0.130;0.130;0.120
464.60;0.130;0.129;0.120
464.80;0.130;0.129;0.120
465.00;0.130;0.129;0.120
465.20;0.130;0.129;0.120
465.40;0.130;0.129;0.120
465.60;0.130;0.129;0.120
465.80;0.129;0.129;0.120
466.00;0.129;0.129;0.120
466.20;0.129;0.128;0.119
466.40;0.129;0.128;0.119
466.60;0.129;0.128;0.119
466.80;0.129;0.128;0.119
467.00;0.129;0.128;0.119
467.20;0.129;0.128;0.119
467.40;0.129;0.128;0.119
467.60;0.128;0.128;0.119
467.80;0.128;0.127;0.119
468.00;0.128;0.127;0.119
468.20;0.128;0.127;0.119
468.40;0.128;0.127;0.119
468.60;0.128;0.127;0.118
468.80;0.128;0.127;0.118
469.00;0.128;0.126;0.118
469.20;0.128;0.126;0.118
469.40;0.127;0.126;0.118
469.60;0.127;0.126;0.118
469.80;0.127;0.126;0.118
470.00;0.127;0.126;0.118
470.20;0.127;0.126;0.118
470.40;0.127;0.125;0.117
470.60;0.127;0.125;0.117
470.80;0.127;0.125;0.117
471.00;0.127;0.125;0.117
471.20;0.126;0.125;0.117
471.40;0.126;0.125;0.117
471.60;0.126;0.125;0.117
471.80;0.126;0.124;0.117
472.00;0.126;0.124;0.117
472.20;0.126;0.124;0.117
472.40;0.126;0.124;0.117
472.60;0.126;0.124;0.116
472.80;0.125;0.124;0.116
473.00;0.125;0.124;0.116
473.20;0.125;0.123;0.116
473.40;0.125;0.123;0.116
473.60;0.125;0.123;0.116
473.80;0.125;0.123;0.116
474.00;0.125;0.123;0.116
474.20;0.125;0.123;0.116
474.40;0.125;0.123;0.116
474.60;0.124;0.122;0.115
474.80;0.124;0.122;0.115
475.00;0.124;0.122;0.115
475.20;0.124;0.122;0.115
475.40;0.124;0.122;0.115
475.60;0.124;0.122;0.115
475.80;0.124;0.122;0.115
476.00;0.124;0.121;0.115
476.20;0.123;0.121;0.115
476.40;0.123;0.121;0.115
476.60;0.123;0.121;0.115
476.80;0.123;0.121;0.114
477.00;0.123;0.121;0.114
477.20;0.123;0.121;0.114
477.40;0.123;0.121;0.114
477.60;0.123;0.120;0.114
477.80;0.122;0.120;0.114
478.00;0.122;0.120;0.114
478.20;0.122;0.120;0.114
478.40;0.122;0.120;0.114
478.60;0.122;0.120;0.114
478.80;0.122;0.120;0.113
479.00;0.122;0.119;0.113
479.20;0.122;0.119;0.113
479.40;0.122;0.119;0.113
479.60;0.122;0.119;0.113
479.80;0.121;0.119;0.113
480.00;0.121;0.119;0.113
480.20;0.121;0.119;0.113
480.40;0.121;0.119;0.113
480.60;0.121;0.118;0.113
480.80;0.121;0.118;0.112
481.00;0.121;0.118;0.112
481.20;0.121;0.118;0.112
481.40;0.120;0.118;0.112
481.60;0.120;0.118;0.112
481.80;0.120;0.118;0.112
482.00;0.120;0.117;0.112
482.20;0.120;0.117;0.112
482.40;0.120;0.117;0.112
482.60;0.120;0.117;0.112
482.80;0.120;0.117;0.111
483.00;0.119;0.117;0.111
483.20;0.119;0.117;0.111
483.40;0.119;0.117;0.111
483.60;0.119;0.116;0.111
483.80;0.119;0.116;0.111
484.00;0.119;0.116;0.111
484.20;0.119;0.116;0.111
484.40;0.119;0.116;0.111
484.60;0.118;0.116;0.111
484.80;0.118;0.116;0.110
485.00;0.118;0.116;0.110
485.20;0.118;0.115;0.110
485.40;0.118;0.115;0.110
485.60;0.118;0.115;0.110
485.80;0.118;0.115;0.110
486.00;0.118;0.115;0.110
486.20;0.117;0.115;0.110
486.40;0.117;0.115;0.110
486.60;0.117;0.115;0.110
486.80;0.117;0.114;0.109
487.00;0.117;0.114;0.109
487.20;0.117;0.114;0.109
487.40;0.117;0.114;0.109
487.60;0.117;0.114;0.109
487.80;0.117;0.114;0.109
488.00;0.116;0.114;0.109
488.20;0.116;0.114;0.109
488.40;0.116;0.114;0.109
488.60;0.116;0.113;0.109
488.80;0.116;0.113;0.109
489.00;0.116;0.113;0.108
489.20;0.116;0.113;0.108
489.40;0.116;0.113;0.108
489.60;0.115;0.113;0.108
489.80;0.115;0.113;0.108
490.00;0.115;0.112;0.108
490.20;0.115;0.112;0.108
490.40;0.115;0.112;0.108
490.60;0.115;0.112;0.108
490.80;0.115;0.112;0.108
491.00;0.115;0.112;0.107
491.20;0.115;0.112;0.107
491.40;0.115;0.112;0.107
491.60;0.114;0.112;0.107
491.80;0.114;0.111;0.107
492.00;0.114;0.111;0.107
492.20;0.114;0.111;0.107
492.40;0.114;0.111;0.107
492.60;0.114;0.111;0.107
492.80;0.114;0.111;0.107
493.00;0.114;0.111;0.107
493.20;0.114;0.111;0.107
493.40;0.113;0.110;0.106
493.60;0.113;0.110;0.106
493.80;0.113;0.110;0.106
494.00;0.113;0.110;0.106
494.20;0.113;0.110;0.106
494.40;0.113;0.110;0.106
494.60;0.113;0.110;0.106
494.80;0.113;0.110;0.106
495.00;0.113;0.110;0.106
495.20;0.112;0.109;0.106
495.40;0.112;0.109;0.106
495.60;0.112;0.109;0.105
495.80;0.112;0.109;0.105
496.00;0.112;0.109;0.105
496.20;0.112;0.109;0.105
496.40;0.112;0.109;0.105
496.60;0.112;0.109;0.105
496.80;0.112;0.108;0.105
497.00;0.111;0.108;0.105
497.20;0.111;0.108;0.105
497.40;0.111;0.108;0.105
497.60;0.111;0.108;0.105
497.80;0.111;0.108;0.104
498.00;0.111;0.108;0.104
498.20;0.111;0.108;0.104
498.40;0.111;0.107;0.104
498.60;0.111;0.107;0.104
498.80;0.110;0.107;0.104
499.00;0.110;0.107;0.104
499.20;0.110;0.107;0.104
499.40;0.110;0.107;0.104
499.60;0.110;0.107;0.104
499.80;0.110;0.106;0.103
500.00;0.110;0.106;0.103
500.20;0.110;0.106;0.103
500.40;0.109;0.106;0.103
500.60;0.109;0.106;0.103
500.80;0.109;0.106;0.103
501.00;0.109;0.106;0.103
501.20;0.109;0.106;0.103
501.40;0.109;0.105;0.103
501.60;0.109;0.105;0.103
501.80;0.109;0.105;0.103
502.00;0.109;0.105;0.103
502.20;0.109;0.105;0.103
502.40;0.108;0.105;0.102
502.60;0.108;0.105;0.102
502.80;0.108;0.104;0.102
503.00;0.108;0.104;0.102
503.20;0.108;0.104;0.102
503.40;0.108;0.104;0.102
503.60;0.108;0.104;0.102
503.80;0.108;0.104;0.102
504.00;0.107;0.104;0.102
504.20;0.107;0.104;0.101
504.40;0.107;0.103;0.101
504.60;0.107;0.103;0.101
504.80;0.107;0.103;0.101
505.00;0.107;0.103;0.101
505.20;0.107;0.103;0.101
505.40;0.107;0.103;0.101
505.60;0.107;0.103;0.101
505.80;0.106;0.103;0.101
506.00;0.106;0.102;0.101
506.20;0.106;0.102;0.101
506.40;0.106;0.102;0.100
506.60;0.106;0.102;0.100
506.80;0.106;0.102;0.100
507.00;0.106;0.102;0.100
507.20;0.106;0.102;0.100
507.40;0.105;0.102;0.100
507.60;0.105;0.101;0.100
507.80;0.105;0.101;0.100
508.00;0.105;0.101;0.100
508.20;0.105;0.101;0.100
508.40;0.105;0.101;0.100
508.60;0.105;0.101;0.099
508.80;0.105;0.101;0.099
509.00;0.105;0.100;0.099
509.20;0.104;0.100;0.099
509.40;0.104;0.100;0.099
509.60;0.104;0.100;0.099
509.80;0.104;0.100;0.099
510.00;0.104;0.100;0.099
510.20;0.104;0.100;0.099
510.40;0.104;0.100;0.099
510.60;0.104;0.100;0.098
510.80;0.104;0.099;0.098
511.00;0.103;0.099;0.098
511.20;0.103;0.099;0.098
511.40;0.103;0.099;0.098
511.60;0.103;0.099;0.098
511.80;0.103;0.099;0.098
512.00;0.103;0.099;0.098
512.20;0.103;0.099;0.098
512.40;0.103;0.098;0.098
512.60;0.102;0.098;0.098
512.80;0.102;0.098;0.097
513.00;0.102;0.098;0.097
513.20;0.102;0.098;0.097
513.40;0.102;0.098;0.097
513.60;0.102;0.098;0.097
513.80;0.102;0.098;0.097
514.00;0.102;0.097;0.097
514.20;0.101;0.097;0.097
514.40;0.101;0.097;0.097
514.60;0.101;0.097;0.097
514.80;0.101;0.097;0.097
515.00;0.101;0.097;0.097
515.20;0.101;0.097;0.096
515.40;0.101;0.097;0.096
515.60;0.101;0.097;0.096
515.80;0.101;0.097;0.096
516.00;0.100;0.097;0.096
516.20;0.100;0.096;0.096
516.40;0.100;0.096;0.096
516.60;0.100;0.096;0.096
516.80;0.100;0.096;0.096
517.00;0.100;0.096;0.096
517.20;0.100;0.096;0.096
517.40;0.100;0.096;0.095
517.60;0.100;0.096;0.095
517.80;0.100;0.095;0.095
518.00;0.099;0.095;0.095
518.20;0.099;0.095;0.095
518.40;0.099;0.095;0.095
518.60;0.099;0.095;0.095
518.80;0.099;0.095;0.095
519.00;0.099;0.095;0.095
519.20;0.099;0.095;0.095
519.40;0.099;0.095;0.095
519.60;0.098;0.095;0.094
519.80;0.098;0.094;0.094
520.00;0.098;0.094;0.094
520.20;0.098;0.094;0.094
520.40;0.098;0.094;0.094
520.60;0.098;0.094;0.094
520.80;0.098;0.094;0.094
521.00;0.098;0.094;0.094
521.20;0.098;0.094;0.094
521.40;0.097;0.094;0.094
521.60;0.097;0.094;0.094
521.80;0.097;0.093;0.093
522.00;0.097;0.093;0.093
522.20;0.097;0.093;0.093
522.40;0.097;0.093;0.093
522.60;0.097;0.093;0.093
522.80;0.097;0.093;0.093
523.00;0.097;0.093;0.093
523.20;0.096;0.093;0.093
523.40;0.096;0.093;0.093
523.60;0.096;0.093;0.093
523.80;0.096;0.093;0.093
524.00;0.096;0.092;0.092
524.20;0.096;0.092;0.092
524.40;0.096;0.092;0.092
524.60;0.096;0.092;0.092
524.80;0.096;0.092;0.092
525.00;0.096;0.092;0.092
525.20;0.095;0.092;0.092
525.40;0.095;0.092;0.092
525.60;0.095;0.092;0.092
525.80;0.095;0.092;0.091
526.00;0.095;0.091;0.091
526.20;0.095;0.091;0.091
526.40;0.095;0.091;0.091
526.60;0.095;0.091;0.091
526.80;0.095;0.091;0.091
527.00;0.095;0.091;0.091
527.20;0.095;0.091;0.091
527.40;0.094;0.091;0.091
527.60;0.094;0.091;0.091
527.80;0.094;0.091;0.091
528.00;0.094;0.091;0.091
528.20;0.094;0.091;0.090
528.40;0.094;0.090;0.090
528.60;0.094;0.090;0.090
528.80;0.094;0.090;0.090
529.00;0.094;0.090;0.090
529.20;0.094;0.090;0.090
529.40;0.093;0.090;0.090
529.60;0.093;0.090;0.090
529.80;0.093;0.090;0.090
530.00;0.093;0.090;0.090
530.20;0.093;0.090;0.090
530.40;0.093;0.090;0.089
530.60;0.093;0.089;0.089
530.80;0.093;0.089;0.089
531.00;0.093;0.089;0.089
531.20;0.092;0.089;0.089
531.40;0.092;0.089;0.089
531.60;0.092;0.089;0.089
531.80;0.092;0.089;0.089
532.00;0.092;0.089;0.089
532.20;0.092;0.089;0.089
532.40;0.092;0.089;0.089
532.60;0.092;0.089;0.089
532.80;0.092;0.089;0.088
533.00;0.092;0.089;0.088
533.20;0.092;0.088;0.088
533.40;0.092;0.088;0.088
533.60;0.091;0.088;0.088
533.80;0.091;0.088;0.088
534.00;0.091;0.088;0.088
534.20;0.091;0.088;0.088
534.40;0.091;0.088;0.088
534.60;0.091;0.088;0.088
534.80;0.091;0.088;0.088
535.00;0.091;0.088;0.088
535.20;0.091;0.088;0.087
535.40;0.091;0.088;0.087
535.60;0.091;0.087;0.087
535.80;0.091;0.087;0.087
536.00;0.091;0.087;0.087
536.20;0.090;0.087;0.087
536.40;0.090;0.087;0.087
536.60;0.090;0.087;0.087
536.80;0.090;0.087;0.087
537.00;0.090;0.087;0.087
537.20;0.090;0.087;0.087
537.40;0.090;0.087;0.087
537.60;0.090;0.087;0.087
537.80;0.090;0.086;0.087
538.00;0.090;0.086;0.087
538.20;0.090;0.086;0.086
538.40;0.089;0.086;0.086
538.60;0.089;0.086;0.086
538.80;0.089;0.086;0.086
539.00;0.089;0.086;0.086
539.20;0.089;0.086;0.086
539.40;0.089;0.086;0.086
539.60;0.089;0.086;0.086
539.80;0.089;0.086;0.086
540.00;0.089;0.086;0.086
540.20;0.089;0.086;0.086
540.40;0.089;0.086;0.086
540.60;0.089;0.086;0.086
540.80;0.089;0.086;0.086
541.00;0.089;0.085;0.086
541.20;0.089;0.085;0.086
541.40;0.089;0.085;0.086
541.60;0.089;0.085;0.085
541.80;0.088;0.085;0.085
542.00;0.088;0.085;0.085
542.20;0.088;0.085;0.085
542.40;0.088;0.085;0.085
542.60;0.088;0.085;0.085
542.80;0.088;0.085;0.085
543.00;0.088;0.085;0.085
543.20;0.088;0.085;0.085
543.40;0.088;0.085;0.085
543.60;0.088;0.085;0.085
543.80;0.088;0.085;0.085
544.00;0.088;0.085;0.085
544.20;0.088;0.085;0.085
544.40;0.088;0.085;0.085
544.60;0.088;0.084;0.085
544.80;0.088;0.084;0.085
545.00;0.088;0.084;0.085
545.20;0.087;0.084;0.084
545.40;0.087;0.084;0.084
545.60;0.087;0.084;0.084
545.80;0.087;0.084;0.084
546.00;0.087;0.084;0.084
546.20;0.087;0.084;0.084
546.40;0.087;0.084;0.084
546.60;0.087;0.084;0.084
546.80;0.087;0.084;0.084
547.00;0.087;0.084;0.084
547.20;0.087;0.084;0.084
547.40;0.087;0.084;0.084
547.60;0.087;0.084;0.084
547.80;0.087;0.084;0.084
548.00;0.087;0.084;0.084
548.20;0.086;0.084;0.084
548.40;0.086;0.084;0.083
548.60;0.086;0.084;0.083
548.80;0.086;0.084;0.083
549.00;0.086;0.083;0.083
549.20;0.086;0.083;0.083
549.40;0.086;0.083;0.083
549.60;0.086;0.083;0.083
549.80;0.086;0.083;0.083
550.00;0.086;0.083;0.083
550.20;0.086;0.083;0.083
550.40;0.086;0.083;0.083
550.60;0.086;0.083;0.083
550.80;0.086;0.083;0.083
551.00;0.086;0.083;0.083
551.20;0.086;0.083;0.083
551.40;0.086;0.083;0.082
551.60;0.085;0.083;0.082
551.80;0.085;0.083;0.082
552.00;0.085;0.083;0.082
552.20;0.085;0.083;0.082
552.40;0.085;0.083;0.082
552.60;0.085;0.083;0.082
552.80;0.085;0.083;0.082
553.00;0.085;0.083;0.082
553.20;0.085;0.083;0.082
553.40;0.085;0.083;0.082
553.60;0.085;0.083;0.082
553.80;0.085;0.082;0.082
554.00;0.085;0.082;0.082
554.20;0.085;0.082;0.082
554.40;0.085;0.082;0.081
554.60;0.085;0.082;0.081
554.80;0.085;0.082;0.081
555.00;0.085;0.082;0.081
555.20;0.085;0.082;0.081
555.40;0.084;0.082;0.081
555.60;0.084;0.082;0.081
555.80;0.084;0.082;0.081
556.00;0.084;0.082;0.081
556.20;0.084;0.082;0.081
556.40;0.084;0.082;0.081
556.60;0.084;0.082;0.081
556.80;0.084;0.082;0.081
557.00;0.084;0.082;0.081
557.20;0.084;0.082;0.081
557.40;0.084;0.082;0.081
557.60;0.084;0.082;0.081
557.80;0.084;0.082;0.081
558.00;0.084;0.082;0.080
558.20;0.084;0.082;0.080
558.40;0.084;0.082;0.080
558.60;0.084;0.082;0.080
558.80;0.084;0.082;0.080
559.00;0.084;0.081;0.080
559.20;0.084;0.081;0.080
559.40;0.083;0.081;0.080
559.60;0.083;0.081;0.080
559.80;0.083;0.081;0.080
560.00;0.083;0.081;0.080
560.20;0.083;0.081;0.080
560.40;0.083;0.081;0.080
560.60;0.083;0.081;0.080
560.80;0.083;0.081;0.080
561.00;0.083;0.081;0.080
561.20;0.083;0.081;0.080
561.40;0.083;0.081;0.080
561.60;0.083;0.081;0.079
561.80;0.083;0.081;0.079
562.00;0.083;0.081;0.079
562.20;0.083;0.081;0.079
562.40;0.083;0.081;0.079
562.60;0.083;0.081;0.079
562.80;0.083;0.081;0.079
563.00;0.083;0.081;0.079
563.20;0.083;0.081;0.079
563.40;0.083;0.081;0.079
563.60;0.082;0.081;0.079
563.80;0.082;0.081;0.079
564.00;0.082;0.081;0.079
564.20;0.082;0.081;0.079
564.40;0.082;0.081;0.079
564.60;0.082;0.080;0.079
564.80;0.082;0.080;0.079
565.00;0.082;0.080;0.079
565.20;0.082;0.080;0.079
565.40;0.082;0.080;0.079
565.60;0.082;0.080;0.079
565.80;0.082;0.080;0.079
566.00;0.082;0.080;0.078
566.20;0.082;0.080;0.078
566.40;0.082;0.080;0.078
566.60;0.082;0.080;0.078
566.80;0.082;0.080;0.078
567.00;0.082;0.080;0.078
567.20;0.082;0.080;0.078
567.40;0.082;0.080;0.078
567.60;0.082;0.080;0.078
567.80;0.082;0.080;0.078
568.00;0.082;0.080;0.078
568.20;0.082;0.080;0.078
568.40;0.082;0.080;0.078
568.60;0.081;0.080;0.078
568.80;0.081;0.080;0.078
569.00;0.081;0.080;0.078
569.20;0.081;0.080;0.078
569.40;0.081;0.080;0.078
569.60;0.081;0.080;0.078
569.80;0.081;0.080;0.078
570.00;0.081;0.080;0.078
570.20;0.081;0.079;0.078
570.40;0.081;0.079;0.077
570.60;0.081;0.079;0.077
570.80;0.081;0.079;0.077
571.00;0.081;0.079;0.077
571.20;0.081;0.079;0.077
571.40;0.081;0.079;0.077
571.60;0.081;0.079;0.077
571.80;0.081;0.079;0.077
572.00;0.081;0.079;0.077
572.20;0.081;0.079;0.077
572.40;0.081;0.079;0.077
572.60;0.081;0.079;0.077
572.80;0.080;0.079;0.077
573.00;0.080;0.079;0.077
573.20;0.080;0.079;0.077
573.40;0.080;0.079;0.077
573.60;0.080;0.079;0.077
573.80;0.080;0.079;0.077
574.00;0.080;0.079;0.077
574.20;0.080;0.079;0.077
574.40;0.080;0.079;0.077
574.60;0.080;0.079;0.077
574.80;0.080;0.079;0.077
575.00;0.080;0.079;0.077
575.20;0.080;0.079;0.076
575.40;0.080;0.078;0.076
575.60;0.080;0.078;0.076
575.80;0.080;0.078;0.076
576.00;0.080;0.078;0.076
576.20;0.080;0.078;0.076
576.40;0.080;0.078;0.076
576.60;0.080;0.078;0.076
576.80;0.080;0.078;0.076
577.00;0.080;0.078;0.076
577.20;0.080;0.078;0.076
577.40;0.080;0.078;0.076
577.60;0.080;0.078;0.076
577.80;0.080;0.078;0.076
578.00;0.079;0.078;0.076
578.20;0.079;0.078;0.076
578.40;0.079;0.078;0.076
578.60;0.079;0.078;0.076
578.80;0.079;0.078;0.076
579.00;0.079;0.078;0.076
579.20;0.079;0.078;0.076
579.40;0.079;0.078;0.076
579.60;0.079;0.078;0.076
579.80;0.079;0.078;0.076
580.00;0.079;0.078;0.076
580.20;0.079;0.078;0.076
580.40;0.079;0.078;0.076
580.60;0.079;0.077;0.075
580.80;0.079;0.077;0.075
581.00;0.079;0.077;0.075
581.20;0.079;0.077;0.075
581.40;0.079;0.077;0.075
581.60;0.079;0.077;0.075
581.80;0.079;0.077;0.075
582.00;0.079;0.077;0.075
582.20;0.079;0.077;0.075
582.40;0.079;0.077;0.075
582.60;0.078;0.077;0.075
582.80;0.078;0.077;0.075
583.00;0.078;0.077;0.075
583.20;0.078;0.077;0.075
583.40;0.078;0.077;0.075
583.60;0.078;0.077;0.075
583.80;0.078;0.077;0.075
584.00;0.078;0.077;0.075
584.20;0.078;0.077;0.075
584.40;0.078;0.077;0.075
584.60;0.078;0.077;0.075
584.80;0.078;0.077;0.075
585.00;0.078;0.077;0.075
585.20;0.078;0.076;0.074
585.40;0.078;0.076;0.074
585.60;0.078;0.076;0.074
585.80;0.078;0.076;0.074
586.00;0.078;0.076;0.074
586.20;0.078;0.076;0.074
586.40;0.078;0.076;0.074
586.60;0.078;0.076;0.074
586.80;0.078;0.076;0.074
587.00;0.078;0.076;0.074
587.20;0.078;0.076;0.074
587.40;0.078;0.076;0.074
587.60;0.077;0.076;0.074
587.80;0.077;0.076;0.074
588.00;0.077;0.076;0.074
588.20;0.077;0.076;0.074
588.40;0.077;0.076;0.074
588.60;0.077;0.076;0.074
588.80;0.077;0.076;0.074
589.00;0.077;0.076;0.074
589.20;0.077;0.076;0.074
589.40;0.077;0.076;0.074
589.60;0.077;0.076;0.074
589.80;0.077;0.076;0.074
590.00;0.077;0.076;0.074
590.20;0.077;0.076;0.074
590.40;0.077;0.076;0.073
590.60;0.077;0.076;0.073
590.80;0.077;0.076;0.073
591.00;0.077;0.076;0.073
591.20;0.077;0.076;0.073
591.40;0.077;0.075;0.073
591.60;0.077;0.075;0.073
591.80;0.077;0.075;0.073
592.00;0.077;0.075;0.073
592.20;0.077;0.075;0.073
592.40;0.077;0.075;0.073
592.60;0.077;0.075;0.073
592.80;0.077;0.075;0.073
593.00;0.077;0.075;0.073
593.20;0.076;0.075;0.073
593.40;0.076;0.075;0.073
593.60;0.076;0.075;0.073
593.80;0.076;0.075;0.073
594.00;0.076;0.075;0.073
594.20;0.076;0.075;0.073
594.40;0.076;0.075;0.073
594.60;0.076;0.075;0.073
594.80;0.076;0.075;0.073
595.00;0.076;0.075;0.073
595.20;0.076;0.075;0.073
595.40;0.076;0.075;0.073
595.60;0.076;0.075;0.073
595.80;0.076;0.075;0.073
596.00;0.076;0.075;0.073
596.20;0.076;0.075;0.073
596.40;0.076;0.075;0.073
596.60;0.076;0.075;0.073
596.80;0.076;0.075;0.072
597.00;0.076;0.075;0.072
597.20;0.076;0.075;0.072
597.40;0.076;0.075;0.072
597.60;0.076;0.075;0.072
597.80;0.076;0.075;0.072
598.00;0.076;0.075;0.072
598.20;0.076;0.074;0.072
598.40;0.076;0.074;0.072
598.60;0.075;0.074;0.072
598.80;0.075;0.074;0.072
599.00;0.075;0.074;0.072
599.20;0.075;0.074;0.072
599.40;0.075;0.074;0.072
599.60;0.075;0.074;0.072
599.80;0.075;0.074;0.072
600.00;0.075;0.074;0.072
